# 20201111_132341
# opt-rf - rand_spline
# -1
# width: 2.000000 ms.
# pulse steps: 200.
# pulse format: amplitude (Hz)/phase (deg).
# isotope: 1H 
# CH 1 MAX amplitude: 499.406903 Hz
# CH 1 MIN amplitude: 2.950942 Hz
# CH 1 AVG amplitude: 201.300991 Hz
# CH 1 MAX phase: 176.842808 deg
# CH 1 MIN phase: -177.846598 deg
  212.754  -45.5431
  205.988   -47.545
  200.263  -49.6323
  194.839  -51.4792
  188.811  -53.1154
  181.981  -54.7017
  174.582  -56.3411
  167.128  -58.0917
   159.57   -59.867
  151.816  -61.6399
  143.882    -63.41
  135.781  -65.1767
  127.529  -66.9393
  119.143  -68.6969
  110.637  -70.4515
  102.049  -72.2121
  93.6459  -74.0538
  85.1294  -75.9692
  76.4643  -77.9674
  67.6323  -80.0374
  58.6479  -82.1464
  49.5632  -84.2436
   40.459  -86.2682
  31.4249   -88.157
  22.5366  -89.8339
  13.8419  -91.1175
  5.36065  -90.7178
  2.95094   77.9489
  11.0356   80.9095
  18.9587    79.986
  26.7171    78.634
  34.3067   77.1355
  41.7111   75.5647
  48.9066   73.9572
  55.8646   72.3346
  62.5513    70.709
  68.9285    69.084
  74.9563   67.4551
  80.5991   65.8106
  85.8326   64.1345
  90.6506    62.411
  95.0661   60.6297
  99.1075   58.7897
  102.808   56.9013
  106.191   54.9831
  109.266   53.0575
  112.019   51.1438
  114.422   49.2533
  116.444     47.39
  118.057   45.5524
  119.236    43.736
  119.965   41.9352
  120.235   40.1441
  120.042   38.3582
  119.386   36.5737
  118.267   34.7884
   116.69   33.0008
  114.657   31.2105
  112.174   29.4176
  109.244   27.6226
  105.872    25.826
  102.062   24.0287
  97.8217   22.2316
  93.1565   20.4351
  88.0728   18.6391
  82.5766   16.8428
  76.6734   15.0449
  70.3681   13.2433
  63.6655   11.4358
  56.5704   9.61885
  49.0879   7.78778
  41.2238   5.93429
  32.9846   4.04173
   24.378    2.0683
   15.413 -0.130443
  6.10204  -3.60965
  3.57127  -177.847
  13.5422   176.843
  23.8345   174.501
  34.4283    172.48
  45.3101   170.558
  56.4665   168.679
  67.8842   166.823
  79.5492   164.981
  91.4466   163.147
   103.56   161.321
  115.872   159.501
  128.363   157.685
  141.013   155.874
  153.803   154.065
   166.71   152.258
  179.715   150.454
  192.797    148.65
  205.935   146.848
  219.107   145.046
  232.289   143.244
  245.458   141.442
  258.588   139.639
   271.65   137.834
  284.615   136.028
  297.453    134.22
  310.132   132.411
  322.621   130.602
  334.891   128.792
  346.912   126.984
  358.657   125.177
  370.099   123.372
  381.211   121.569
  391.968   119.768
  402.341   117.968
  412.306   116.169
  421.835   114.371
  430.904   112.573
   439.49   110.776
   447.57   108.978
  455.123   107.181
  462.131   105.383
  468.577   103.585
  474.445   101.787
  479.721   99.9879
  484.394   98.1888
  488.454   96.3892
  491.889   94.5891
  494.689   92.7885
  496.846   90.9874
  498.354    89.186
  499.209   87.3842
  499.407   85.5824
  498.948   83.7809
  497.835   81.9799
   496.07   80.1799
   493.66   78.3814
  490.612    76.585
  486.931   74.7909
  482.624   72.9997
  477.698   71.2114
  472.157   69.4254
   466.01   67.6401
  459.277   65.8532
  451.981   64.0626
  444.157   62.2663
  435.842   60.4631
  427.077   58.6529
  417.901   56.8369
  408.344   55.0169
   398.43   53.1954
  388.174   51.3747
  377.584   49.5564
   366.67   47.7418
  355.437   45.9311
  343.898   44.1242
  332.064   42.3207
  319.955   40.5203
  307.594   38.7228
  295.002   36.9286
  282.204   35.1383
  269.226    33.353
  256.092   31.5734
  242.828   29.8003
  229.459   28.0336
  216.007    26.273
  202.491    24.517
  188.925   22.7636
  175.319   21.0102
  161.677   19.2542
  148.003   17.4933
  134.295   15.7264
  120.557   13.9542
  106.794    12.179
   93.012    10.405
  79.2233    8.6389
  65.4402   6.89157
  51.6764   5.18341
  37.9454   3.56146
  24.2607   2.17515
  10.6374   1.93241
  2.98738   167.108
  16.4415   173.584
  29.8534   172.569
  43.1905   171.042
  56.4543   169.372
  69.6495   167.653
  82.7725   165.927
  95.8031   164.217
    108.7   162.531
  121.408   160.867
  133.868   159.209
  146.039   157.538
  157.909   155.839
  169.497   154.101
  180.838   152.327
   191.97   150.524
  202.916   148.706
  213.683   146.884
  224.264   145.066
  234.646   143.252
  244.811   141.441
  254.731   139.623
  264.345   137.788
  273.543   135.935
#----------------------------------------