# 20201111_151633
# opt-rf - rand_spline
# -1
# width: 2.000000 ms.
# pulse steps: 200.
# pulse format: x/y components (Hz).
# isotope: 1H 
    130.318    -134.727
    122.627    -134.902
    114.878    -134.544
    107.075    -133.676
    99.2882    -132.283
    91.5728    -130.358
    83.9663    -127.912
    76.5056    -124.956
    69.2265    -121.503
    62.1639    -117.572
    55.3512    -113.182
    48.8204    -108.356
    42.6014    -103.119
    36.7227    -97.4976
    31.2138    -91.5287
    26.1212    -85.2703
    21.4535    -78.7158
    17.2271    -71.8971
    13.4552    -64.8486
    10.1476    -57.6075
    7.31131    -50.2131
    4.95092    -42.7071
    3.06875    -35.1324
    1.66474    -27.5329
   0.736375    -19.9528
   0.278361    -12.4364
   0.282037    -5.02703
   0.735075     2.23299
    1.62081     9.30298
    2.91791      16.145
    4.60022     22.7249
    6.63782     29.0138
    9.00044     34.9907
    11.6587     40.6402
    14.5854     45.9501
    17.7566     50.9101
    21.1515     55.5092
    24.7513     59.7337
    28.5367     63.5663
    32.4852     66.9865
    36.5689     69.9719
    40.7539     72.5012
    44.9997     74.5567
    49.2614     76.1267
    53.4916     77.2066
    57.6426     77.7992
    61.6688     77.9134
    65.5282     77.5622
    69.1805      76.761
    72.5869     75.5287
      75.71     73.8873
     78.514     71.8624
    80.9654     69.4825
    83.0331     66.7791
    84.6884      63.786
    85.9053      60.539
    86.6602     57.0751
    86.9314     53.4321
    86.6995      49.648
    85.9468     45.7604
    84.6579     41.8057
     82.821     37.8182
     80.431     33.8306
     77.488     29.8753
    73.9978     25.9864
    69.9708     22.2001
    65.4216     18.5562
    60.3676     15.0982
    54.8275     11.8727
    48.8195     8.92872
    42.3616      6.3153
    35.4704     4.08008
    28.1627     2.26769
    20.4564    0.918529
    12.3717   0.0686616
    3.93201   -0.250083
   -4.83472 -0.00948364
   -13.8951     0.81602
   -23.2118     2.25049
   -32.7447     4.31664
   -42.4515     7.03532
   -52.2876     10.4252
   -62.2069     14.5025
   -72.1615     19.2803
   -82.1021     24.7689
   -91.9782     30.9749
   -101.738     37.9017
   -111.328     45.5484
   -120.695     53.9106
   -129.785     62.9794
   -138.543     72.7418
   -146.916     83.1802
    -154.85     94.2721
   -162.293      105.99
   -169.195     118.304
   -175.508     131.177
   -181.185     144.571
    -186.18     158.442
   -190.454     172.742
   -193.966     187.423
   -196.682     202.428
   -198.569     217.702
   -199.599     233.184
   -199.748     248.811
   -198.997     264.517
   -197.329     280.236
   -194.733     295.897
   -191.202     311.431
   -186.736     326.767
   -181.335     341.833
    -175.01     356.559
   -167.773     370.873
   -159.644     384.707
   -150.647     397.994
   -140.812     410.668
   -130.177     422.668
   -118.781     433.934
   -106.674     444.411
   -93.9079     454.047
   -80.5408     462.792
    -66.636     470.603
   -52.2615     477.439
    -37.489      483.26
   -22.3921     488.031
   -7.04513      491.72
    8.47813     494.302
    24.1043     495.757
    39.7609      496.07
    55.3779     495.189
    70.8861      493.16
    86.2107     490.009
    101.278     485.754
    116.015     480.415
    130.351      474.02
    144.219     466.603
    157.552     458.172
    170.274     448.704
    182.304     438.315
    193.574     427.071
    204.023     415.051
    213.609     402.339
    222.306     389.019
      230.1     375.168
    236.987      360.85
    242.964     346.118
     248.02     331.018
    252.137     315.593
    255.293     299.892
    257.467     283.967
    258.644     267.878
    258.821     251.687
    258.013     235.463
    256.249     219.292
    253.561     203.271
    249.977     187.501
    245.506     172.077
     240.15     157.085
    233.901     142.585
    226.763     128.615
    218.757     115.197
    209.923     102.348
     200.32     90.0909
    190.012      78.455
    179.066     67.4486
    167.539     57.1622
    155.483     47.6291
    142.935     38.8192
     129.92     30.7969
    116.461     23.6112
    102.597     17.3274
    88.3987      12.017
    73.9774     7.73242
     59.468     4.47801
      44.99     2.20105
    30.6124    0.815235
    16.3455    0.244283
    2.16782     0.45641
   -11.9355     1.46828
   -25.9468     3.32282
    -39.816     6.06072
   -53.4786     9.70289
   -66.8735     14.2419
   -79.9465     19.6353
   -92.6472     25.8212
   -104.916     32.7312
   -116.677     40.3053
   -127.845     48.5056
   -138.347     57.3195
   -148.134     66.7458
   -157.188     76.7747
   -165.505     87.3724
   -173.082     98.4823
   -179.902     110.036
   -185.943     121.964
   -191.179       134.2
   -195.591     146.688
   -199.168      159.38
   -201.893      172.25
   -203.704     185.285
   -204.452     198.393
#----------------------------------------